File: xps/data_simul_EDs20O.csv
34,-0.780000,0.000000
43,-0.510000,0.000000
32,-0.980000,0.000000
58,-0.270000,0.000000
86,0.270000,0.770000
84,0.110000,0.620000
80,0.550000,0.200000
15,-2.050000,1.010000
18,-1.360000,0.000000
16,-1.420000,0.000000
25,-1.160000,0.000000
84,0.360000,0.620000
73,0.780000,0.000000
15,-1.730000,0.000000
82,0.140000,0.820000
78,-0.020000,0.130000
65,-0.180000,0.000000
48,-0.490000,0.000000
38,-0.730000,0.000000
21,-1.260000,0.000000
78,0.140000,0.830000
31,-0.500000,0.000000
40,-0.220000,0.000000
52,-0.020000,0.000000
62,0.110000,0.140000
72,0.090000,0.980000
80,0.170000,0.790000
79,0.290000,0.610000
70,0.220000,-0.410000
59,0.330000,-0.680000
25,-1.140000,0.000000
32,-0.850000,0.000000
42,-0.480000,0.000000
54,-0.170000,0.000000
65,-0.020000,0.000000
22,-0.850000,0.000000
57,0.160000,-0.330000
76,0.180000,0.980000
72,0.150000,0.380000
66,0.220000,0.340000
57,0.200000,0.000000
45,-0.030000,0.000000
28,-0.570000,0.000000
23,-1.350000,0.000000
48,-0.050000,0.000000
58,0.060000,0.000000
67,0.110000,0.070000
77,0.140000,0.790000
76,0.120000,0.000000
71,0.190000,-0.120000
61,0.230000,-0.750000
14,-1.570000,0.240000
69,0.700000,-0.100000
38,-0.400000,0.000000
27,-0.890000,0.000000
51,0.050000,0.000000
65,0.280000,-0.650000
72,0.290000,0.310000
75,0.300000,0.070000
78,0.150000,0.910000
67,0.180000,0.100000
60,0.070000,0.000000
48,-0.070000,0.000000
36,-0.490000,0.000000
32,-0.560000,0.000000
64,0.050000,0.000000
72,0.060000,0.710000
58,-0.080000,0.000000
48,-0.130000,0.000000
35,-0.550000,0.000000
25,-0.910000,0.000000
20,-1.120000,0.140000
64,0.300000,-1.050000
71,0.390000,-0.230000
78,0.230000,0.500000
82,0.060000,0.470000
73,0.100000,0.970000
28,-0.820000,0.000000
50,-0.040000,0.000000
77,0.370000,-0.250000
64,0.270000,-1.070000
18,-1.630000,0.000000
26,-1.250000,0.000000
36,-0.750000,0.000000
42,-0.560000,0.000000
64,-0.150000,0.000000
75,0.000000,0.120000
82,0.140000,0.520000
80,0.460000,0.740000
76,0.620000,0.290000
75,0.110000,0.380000
69,0.120000,0.360000
58,0.070000,0.000000
67,0.240000,0.100000
76,0.240000,0.810000
76,0.140000,1.080000
68,0.170000,0.000000
61,0.110000,0.000000
52,-0.020000,0.000000
40,-0.470000,0.000000
38,-0.490000,0.000000
50,-0.070000,0.000000
61,0.110000,0.000000
14,-1.900000,0.000000
75,0.730000,-0.250000
28,-1.050000,0.000000
40,-0.610000,0.000000
59,-0.120000,-1.400000
70,0.030000,-0.320000
79,0.100000,0.890000
85,0.320000,1.980000
50,-0.460000,0.000000
65,-0.160000,-0.800000
77,-0.020000,-0.200000
17,-1.520000,0.000000
14,-2.270000,0.000000
20,-1.420000,0.000000
32,-1.040000,0.000000
45,-0.620000,0.000000
65,-0.110000,-1.490000
67,-0.080000,-0.180000
81,0.210000,1.370000
85,0.670000,1.910000
20,-2.630000,0.950000
16,-2.060000,0.000000
14,-2.330000,0.000000
84,0.460000,1.510000
15,-2.430000,0.290000
16,-2.250000,0.000000
22,-1.600000,0.000000
38,-0.810000,0.000000
51,-0.360000,0.000000
64,0.020000,-0.710000
73,0.030000,0.000000
80,0.160000,1.620000
21,-2.720000,2.450000
83,0.700000,1.210000
80,0.800000,0.770000
17,-2.280000,1.290000
14,-2.020000,0.000000
20,-1.710000,0.000000
86,0.260000,1.240000
44,-0.510000,0.000000
58,-0.240000,0.000000
70,-0.010000,-0.430000
81,0.040000,0.120000
35,-0.890000,0.000000
61,-0.020000,-0.210000
19,-1.270000,0.000000
25,-1.290000,0.000000
35,-0.730000,0.000000
48,-0.420000,0.000000
62,-0.170000,0.000000
79,0.040000,0.670000
84,0.130000,0.860000
82,0.490000,0.400000
80,0.160000,0.870000
14,-1.950000,0.000000
16,-1.720000,0.000000
16,-1.830000,0.000000
74,0.720000,-0.210000
76,0.370000,0.220000
67,0.640000,-0.690000
16,-1.640000,0.000000
23,-1.320000,0.000000
31,-0.930000,0.000000
36,-0.870000,0.000000
54,-0.320000,0.000000
66,-0.040000,0.190000
79,0.150000,0.990000
84,0.320000,1.050000
76,0.600000,0.290000
26,-1.180000,0.000000
76,0.120000,0.290000
83,0.440000,0.220000
79,0.850000,0.680000
18,-2.130000,0.430000
15,-2.080000,0.000000
20,-1.360000,0.000000
31,-1.100000,0.000000
45,-0.710000,0.000000
61,-0.290000,-0.410000
70,-0.020000,0.200000
83,0.250000,0.910000
82,0.750000,0.790000
81,0.150000,0.750000
82,0.210000,0.310000
57,-0.260000,0.000000
43,-0.580000,0.000000
31,-1.160000,0.000000
73,-0.030000,-0.300000