File: xps/data_simul_EDs5O.csv
74,0.610000,0.070000
38,-0.340000,0.000000
63,0.250000,0.240000
68,0.140000,0.120000
45,-0.540000,0.000000
13,-1.920000,0.040000
35,-0.810000,0.000000
68,-0.100000,0.120000
18,-2.450000,0.000000
15,-1.770000,0.000000
45,-0.560000,0.000000
74,0.040000,0.250000
15,-1.580000,0.000000
63,-0.130000,0.070000
72,0.630000,0.060000
18,-2.360000,0.000000
35,-0.740000,0.000000
38,-0.870000,0.000000
72,0.040000,0.170000
13,-1.850000,0.000000